File: src/data/AITEX_01.csv
Material,Nº holes / Nº filaments,Diameter (mm),L/D,Filter (um),Sand quantity (cm),Support,Vpump (rpm),Vext (rpm),TE1 (°C),TE2 (°C),TE3 (°C),TE4 (°C),TD(°C),PD(bar),PE(bar),VTO (m/min),VG1(m/min),VG2(m/min),VG3(m/min),VG4(m/min),Vwinder (m/min),Winder tension (N),Tg1(°C),Tg2(°C),Tg3(°C),Quench (%),Spin. F (rmp),Height (m),Count (dtex),Tenacity (g/den),Elongation (%),Sand size min (um),Sand size max (um)
COPET GP001-EASTMAN,36.0,0.4,4.0,60.0,0.0,4.0,10.0,23.9,280.0,285.0,285.0,290.0,295.0,95.2,69.1,968.0,1005.0,1701.0,1751,1780,1845.0,,85.0,110.0,110.0,20.0,24.0,1.4,155,0.54,44.94,0.0,0.0
PET + 3% Antivirico SUKANO,72.0,0.3,2.0,34.0,3.0,2.0,18.0,58.4,275.0,280.0,285.0,285.0,290.0,87.8,75.0,2695.0,2765.0,2765.0,2695,2695,2780.0,16.0,,,,24.0,20.0,1.5,200,2.37,97.11,500.0,355.0
PP HS61R,12.0,0.5,4.0,,0.0,2.0,27.0,44.0,195.0,195.0,200.0,200.0,200.0,0.0,75.0,1252.0,1549.0,1900.0,1991,1971,2000.0,25.0,,,,60.0,22.0,2.25,290,1.68,223.5,0.0,0.0
PP 561R,72.0,0.35,4.0,178.0,0.0,,35.0,63.0,190.0,200.0,210.0,210.0,210.0,16.0,75.0,1800.0,2489.0,2501.0,2661,2558,2595.0,,,,,60.0,22.0,1.5,290,2.36,166.5,0.0,0.0
PP H561R,12.0,0.5,4.0,60.0,0.0,2.0,31.0,66.0,210.0,220.0,225.0,225.0,220.0,27.5,70.0,1252.0,2099.0,2349.0,2661,2558,2590.0,24.0,,,,95.0,24.0,2.25,240,1.99,117.28,800.0,300.0
PA6 PENTABATC,36.0,0.4,4.0,60.0,0.0,,24.0,70.0,250.0,260.0,260.0,260.0,260.0,13.5,86.5,2800.0,2960.0,3000.0,3050,3060,3160.0,11.0,65.0,65.0,,35.0,25.0,1.4,190,3.97,83.11,0.0,0.0
PET + Avanza O 0.3.%,72.0,0.3,2.0,60.0,0.0,,24.0,69.6,275.0,285.0,285.0,285.0,285.0,9.5,70.0,2560.0,2660.0,2665.0,2600,2600,2670.0,20.0,,,,20.0,24.0,1.35,257,1.9,94.5,0.0,0.0
PP H561R,36.0,0.35,4.0,60.0,0.0,,29.0,64.0,220.0,230.0,235.0,235.0,230.0,54.0,75.0,1252.0,2099.0,2349.0,2680,2548,2580.0,,,,,60.0,22.0,2.25,240,3.23,141.33,0.0,0.0
PLA LUMINY L130,72.0,0.3,2.0,60.0,3.0,2.0,27.0,49.0,225.0,215.0,220.0,230.0,235.0,27.0,75.0,2620.0,2750.0,2820.0,2950,2930,3010.0,24.0,,,,70.0,20.0,1.3,250,2.18,53.63,500.0,355.0
PP HS61R,48.0,0.2,,60.0,0.0,,35.0,70.0,215.0,225.0,235.0,240.0,350.0,0.0,80.0,1149.0,1225.0,1799.0,2494,2348,2440.0,,60.0,80.0,90.0,80.0,25.0,2.4,300,3.27,86.67,0.0,0.0
PBT + 15% SPH16W,72.0,0.35,4.0,60.0,2.0,2.0,14.0,50.0,245.0,250.0,255.0,260.0,265.0,41.0,70.0,1100.0,1249.0,2700.0,2700,2641,2720.0,,75.0,85.0,115.0,25.0,22.0,1.3,158,3.0,22.72,500.0,355.0
TPX,72.0,0.4,4.0,60.0,0.0,,18.0,70.0,265.0,270.0,275.0,280.0,290.0,47.0,50.0,2152.0,2251.0,2284.0,2230,2211,2285.0,,,,,40.0,20.0,1.1,158,1.3,22.5,0.0,0.0
PA H24,48.0,0.4,4.0,60.0,0.0,,12.0,80.0,255.0,260.0,265.0,256.0,275.0,90.0,55.0,1800.0,1751.0,2001.0,2440,2406,2500.0,,,,,45.0,12.0,1.3,130,3.52,76.06,0.0,0.0
100%MB SP16H,72.0,0.35,4.0,60.0,2.0,2.0,12.8,46.0,260.0,265.0,270.0,275.0,275.0,56.6,75.0,2200.0,2300.0,2450.0,2505,2500,2560.0,15.0,,,,15.0,20.0,1.2,145,1.53,112.0,500.0,355.0
Pruebas PP Amarilleamiento,72.0,0.6,4.0,178.0,0.0,,36.0,94.32,240.0,260.0,275.0,280.0,280.0,32.1,66.1,523.0,550.0,1600.0,1960,1910,1980.0,,70.0,135.0,125.0,60.0,12.0,2.1,340,3.17,61.0,0.0,0.0
rPET 2% HIPS,75.0,0.3,2.0,90.0,0.0,,25.2,63.0,275.0,285.0,285.0,285.0,295.0,115.7,60.0,700.0,750.0,1300.0,2515,2485,2565.0,,85.0,100.0,130.0,30.0,18.0,1.3,300,2.52,27.2,0.0,0.0
PHB 2450 mod,48.0,0.4,4.0,90.0,4.0,2.0,4.0,53.0,165.0,170.0,175.0,185.0,185.0,0.0,50.0,500.0,540.0,560.0,580,580,600.0,20.0,,,,20.0,11.0,1.3,235,0.48,80.0,855.0,500.0
TCP - ET,12.0,0.5,4.0,178.0,0.0,,10.0,30.5,210.0,220.0,230.0,240.0,240.0,120.0,60.0,800.0,850.0,865.0,900,935,985.0,,,,,80.0,18.0,2.3,270,0.8,330.0,0.0,0.0
TPX,72.0,0.4,4.0,60.0,0.0,,12.5,68.0,275.0,285.0,285.0,290.0,288.0,52.9,50.0,1160.0,1300.0,1450.0,1750,1735,1775.0,,140.0,160.0,145.0,15.0,18.0,1.15,130,1.7,17.0,0.0,0.0
TPX DX350,72.0,0.35,4.0,60.0,0.0,,15.0,65.0,260.0,270.0,280.0,290.0,295.0,49.1,50.0,1290.0,1375.0,1600.0,2080,2050,2125.0,,135.0,160.0,150.0,15.0,20.0,1.1,130,2.75,21.67,0.0,0.0
PES + MNV,72.0,0.4,2.0,90.0,2.0,2.0,21.0,75.0,255.0,265.0,270.0,280.0,285.0,49.0,40.0,2250.0,2400.0,2500.0,2550,2500,2595.0,22.0,,,,15.0,20.0,1.0,250,1.66,157.0,850.0,500.0
rPET tejidos + rPET,72.0,0.3,2.0,60.0,0.0,60.0,18.0,55.0,250.0,255.0,260.0,265.0,265.0,84.0,50.0,2890.0,,,2910,2905,3000.0,16.0,,,,30.0,24.0,1.3,187,1.76,111.0,0.0,0.0
TPC - ET LG,12.0,0.5,4.0,178.0,0.0,,12.0,35.0,215.0,220.0,230.0,240.0,250.0,99.0,70.0,1700.0,1799.0,3000.0,3399,3199,3360.0,3.0,85.0,100.0,115.0,80.0,20.0,1.3,105,1.77,104.2,0.0,0.0
A + rPET 50/50,72.0,0.3,2.0,90.0,0.0,,14.0,53.0,250.0,255.0,260.0,265.0,260.0,105.0,50.0,2308.0,,,2348,2318,,16.0,,,,30.0,24.0,1.3,175,1.63,131.8,0.0,0.0
ADUANITE S3001,72.0,0.35,4.0,178.0,0.0,,21.0,43.0,255.0,260.0,265.0,270.0,270.0,76.5,65.0,900.0,1100.0,2700.0,2975,2850,2945.0,,75.0,89.0,100.0,45.0,18.0,1.3,200,2.74,32.2,0.0,0.0
20180 rPETD/rPET,48.0,0.3,2.0,90.0,0.0,,22.0,51.0,260.0,265.0,270.0,270.0,275.0,33.5,50.0,2690.0,,,2710,2710,2800.0,,,,,30.0,20.0,,240,1.81,142.0,0.0,0.0
rPET DEC + rPET (50%/50%),36.0,0.3,2.0,90.0,4.0,2.0,12.0,30.0,250.0,260.0,265.0,265.0,260.0,96.0,60.0,2866.0,,,2900,2900,3000.0,,,,,50.0,20.0,1.8,120,1.34,143.0,500.0,355.0
PP + 07%Amarillo + 2%UV 792930,72.0,0.4,4.0,60.0,0.0,,16.0,37.0,220.0,230.0,240.0,245.0,260.0,43.5,60.0,602.0,749.0,1951.0,2201,2093,2180.0,19.0,65.0,80.0,120.0,80.0,16.0,2.1,140,3.44,67.44,0.0,0.0
rPET,72.0,0.3,2.0,90.0,3.0,2.0,13.0,49.0,265.0,275.0,280.0,285.0,390.0,100.8,70.0,2690.0,,,2710,2730,2800.0,,,,,30.0,18.0,1.3,137,2.4,120.0,500.0,355.0
rPET 50/50,36.0,0.3,2.0,90.0,3.0,2.0,14.0,62.0,260.0,265.0,270.0,270.0,270.0,91.8,60.0,2866.0,,,2900,2900,3000.0,,,,,60.0,20.0,1.55,140,1.45,130.8,500.0,355.0
PEF 75:25 (0560:0491),48.0,0.4,2.0,90.0,6.0,178.0,35.0,36.0,240.0,250.0,255.0,270.0,275.0,201.0,50.0,3890.0,,,3895,3885,4000.0,21.0,,,,70.0,16.0,1.6,295,2.31,108.3,500.0,355.0
PET + PEF,48.0,0.4,2.0,90.0,1.0,,13.0,35.0,275.0,285.0,290.0,290.0,290.0,230.0,80.0,2900.0,650.0,1750.0,2910,2895,2995.0,13.0,120.0,130.0,140.0,50.0,15.0,1.6,135,2.9,93.5,500.0,355.0
PE PURELL GA7760 + 4% Aditivo,72.0,0.6,4.0,105.0,2.0,2.0,42.0,57.0,200.0,200.0,200.0,200.0,205.0,336.0,60.0,550.0,800.0,1900.0,2200,2150,2180.0,2.0,60.0,50.0,50.0,100.0,30.0,2.1,415,1.47,147.0,850.0,500.0
NEGOMBO WHITE 30% + rPET 70%,36.0,0.3,2.0,90.0,3.0,178.0,13.0,45.0,275.0,278.0,280.0,285.0,285.0,167.0,60.0,2876.0,,,2949,2974,3045.0,,,,,40.0,16.0,1.5,130,2.02,130.0,850.0,500.0
BATCH 2,72.0,0.3,2.0,90.0,1.0,2.0,13.0,46.0,280.0,290.0,295.0,300.0,300.0,139.0,95.0,2900.0,,,2930,2895,3000.0,18.0,,,,30.0,20.0,1.3,130,2.3,133.0,500.0,355.0
NEGOMBO BLACK 30% + rPET 70%,72.0,0.3,2.0,90.0,3.0,178.0,13.0,46.0,268.0,273.0,280.0,275.0,278.0,29.0,60.0,3101.0,,,3125,3125,3230.0,,,,,30.0,16.0,1.5,123,1.72,123.0,500.0,355.0
TPX 350,48.0,0.4,4.0,60.0,2.0,2.0,9.5,87.0,275.0,285.0,290.0,290.0,288.0,17.1,120.0,980.0,1124.0,1695.0,2108,2045,2134.0,,160.0,160.0,150.0,15.0,18.0,1.4,91,3.42,27.5,500.0,355.0
LLDPE ASPUN (RESINEX),72.0,0.6,4.0,105.0,0.0,,22.0,53.0,215.0,220.0,225.0,225.0,225.0,190.0,140.0,650.0,699.0,2200.0,2500,2450,2520.0,,50.0,62.0,77.0,5.0,20.0,2.3,170,1.81,196.0,0.0,0.0
PLA,72.0,0.3,2.0,90.0,2.0,2.0,28.8,48.0,98.3,80.0,225.0,230.0,240.0,245.0,240.0,2950.0,,,3100,3100,3080.0,,,,,40.0,20.0,1.5,260,2.1,65.67,500.0,355.0
PHB DAN 04493,48.0,0.4,4.0,90.0,4.0,178.0,15.0,22.0,188.0,50.0,165.0,170.0,175.0,180.0,185.0,2100.0,,,2150,2123,2000.0,,,,,40.0,20.0,1.55,200,0.93,58.4,500.0,355.0
PHB DAN 04493,48.0,0.4,4.0,90.0,4.0,178.0,11.5,23.0,40.0,50.0,170.0,175.0,180.0,185.0,190.0,1400.0,,,1800,1950,2000.0,,,,,20.0,20.0,1.4,160,1.49,46.0,500.0,355.0
PHB DAN 04493,48.0,0.4,4.0,90.0,4.0,178.0,11.5,23.0,54.0,50.0,170.0,175.0,180.0,185.0,195.0,1400.0,,,1800,1950,2000.0,,,,,20.0,20.0,1.4,167,1.24,41.0,500.0,355.0
rPET 30/70,72.0,0.25,2.0,60.0,3.0,2.0,19.2,80.0,57.3,70.0,260.0,270.0,275.0,275.0,275.0,2600.0,,,2617,2602,2695.0,15.0,,,,40.0,20.0,1.5,210,1.61,186.5,500.0,355.0
PLA + 0.1 Silano,48.0,0.4,2.0,60.0,1.0,178.0,13.0,73.0,0.0,40.0,225.0,225.0,225.0,230.0,230.0,900.0,1026.0,1799.0,2626,2651,2730.0,15.0,78.0,95.0,96.0,15.0,18.0,1.2,147,1.62,35.87,500.0,355.0
COPET,72.0,0.25,2.0,60.0,0.0,2.0,14.0,28.0,172.0,70.0,230.0,235.0,240.0,240.0,240.0,2900.0,,,2930,2920,3010.0,10.0,,,,35.0,18.0,1.05,145,1.85,133.58,0.0,0.0
ADVANITE 53001,72.0,0.35,4.0,178.0,0.0,,20.0,40.0,148.0,90.0,255.0,260.0,265.0,270.0,270.0,900.0,1100.0,2700.0,2975,2850,2955.0,,76.0,80.0,100.0,30.0,18.0,1.3,190,2.84,35.42,0.0,0.0
rPET,72.0,0.3,2.0,90.0,1.0,2.0,10.0,35.0,62.0,60.0,280.0,283.0,287.0,290.0,290.0,2250.0,,,2264,2250,2325.0,,,,,45.0,12.0,1.4,130,2.27,140.0,500.0,355.0
TPE Producción,48.0,0.4,4.0,90.0,0.0,,14.0,23.0,107.2,70.0,195.0,195.0,200.0,205.0,210.0,2400.0,,,2425,2450,2540.0,,,,,35.0,25.0,1.8,165,0.78,123.82,0.0,0.0
ABS H380,72.0,0.6,4.0,60.0,0.0,,26.0,41.0,136.0,135.0,240.0,250.0,260.0,270.0,280.0,1285.0,1421.0,1969.0,1986,1591,1100.0,,100.0,105.0,,60.0,23.0,1.25,330,1.03,10.0,0.0,0.0
rPET BATCH 1,72.0,0.3,2.0,90.0,1.0,2.0,11.9,52.0,65.0,75.0,283.0,291.0,295.0,298.0,298.0,2778.0,,,2800,2778,2885.0,,,,,35.0,18.0,1.5,130,2.25,155.0,500.0,355.0
rPET BATCH 2,72.0,0.3,2.0,90.0,1.0,2.0,10.5,40.0,80.0,60.0,285.0,290.0,295.0,300.0,300.0,2758.0,,,2802,2778,2885.0,,,,,50.0,18.0,1.5,110,2.5,130.0,500.0,355.0
PBS,36.0,0.3,2.0,90.0,0.0,,16.0,29.0,181.0,60.0,235.0,245.0,255.0,255.0,260.0,2630.0,,,2700,2700,2800.0,14.0,,,,75.0,20.0,2.0,150,1.68,175.0,0.0,0.0
PLA + 0.1 Silano,72.0,0.3,2.0,60.0,3.0,2.0,13.0,100.0,0.0,0.0,210.0,212.0,214.0,216.0,220.0,900.0,1250.0,1700.0,2582,2600,2665.0,,75.0,90.0,75.0,30.0,18.0,1.3,180,1.05,35.0,500.0,355.0
Reclado químico VELOR,72.0,0.35,2.0,60.0,2.0,2.0,11.9,61.0,128.7,60.0,300.0,305.0,310.0,315.0,320.0,2700.0,,,2725,2715,2800.0,20.0,,,,10.0,18.0,1.25,136,2.33,141.0,500.0,355.0
PE ASPUN,72.0,0.6,4.0,105.0,0.0,,25.0,48.18,27.6,90.0,235.0,240.0,245.0,245.0,250.0,800.0,900.0,2700.0,3052,2915,3005.0,,50.0,62.0,77.0,45.0,20.0,2.1,157,2.1,143.0,0.0,0.0
SABIC M200056,72.0,0.6,4.0,105.0,2.0,2.0,22.5,35.0,28.7,36.6,217.0,220.0,218.0,215.0,220.0,650.0,850.0,2250.0,2925,2875,2940.0,10.0,55.0,65.0,75.0,10.0,20.0,1.9,166,2.1,124.33,850.0,500.0
PLA + CaCO3,72.0,0.3,2.0,90.0,2.0,2.0,19.0,42.0,52.0,70.0,225.0,230.0,235.0,240.0,240.0,2500.0,,,2520,2520,2600.0,,,,,40.0,20.0,1.65,230,2.05,85.0,500.0,355.0
PLA + CaCO3,72.0,0.3,2.0,90.0,2.0,2.0,19.5,43.0,50.0,70.0,225.0,230.0,235.0,240.0,240.0,2530.0,,,2550,2550,2630.0,,,,,40.0,20.0,1.65,220,1.7,95.0,500.0,355.0
MP1925 + 0.3 TiO2,72.0,0.3,2.0,90.0,2.0,2.0,14.5,45.0,169.2,115.4,295.0,300.0,305.0,305.0,305.0,2740.0,,,2778,2758,2840.0,16.0,,,,10.0,16.0,1.5,148,2.9,147.0,500.0,355.0